DataFileTitle 	SiO2 microsized and nanoparticles, in D2O, pH=10, Sine ++ only. 
Sample 	Sample 4 (nano) 
Settings 	D1=D2=20x8 mm,Ds = 16x10 mm (WxH), GF1 =scanning, GF2 = 2.5 A. 
Operator 	CPD 
Date 	ma 26 jan 2015 19:38:28 
ScanType 	sine one element scan 
Thickness [cm] 	1 
Q_zmax [\AA^-1] 	0.05 
Q_ymax [\AA^-1] 	0.05 
  
spin echo length [nm] 	 error SEL 	 wavelength [nm] 	 error wavelength 	 polarisation 	 error pol 
29.881	1.4941	0.211	0.05	1.0014	0.0068675
85.281	4.264	0.211	0.05	0.99372	0.0069862
140.89	7.0446	0.211	0.05	0.98122	0.0076264
196.61	9.8304	0.211	0.05	0.97132	0.0071845
252.6	12.63	0.211	0.05	0.94755	0.0067993
308.75	15.438	0.211	0.05	0.94135	0.0064425
365.13	18.257	0.211	0.05	0.9112	0.0061991
421.73	21.087	0.211	0.05	0.90936	0.0063679
478.61	23.931	0.211	0.05	0.90869	0.0066391
535.81	26.79	0.211	0.05	0.90883	0.0068042
593.22	29.661	0.211	0.05	0.89779	0.00649
651.13	32.556	0.211	0.05	0.90056	0.0061574
709.27	35.464	0.211	0.05	0.89106	0.0060786
767.86	38.393	0.211	0.05	0.88578	0.006459
826.83	41.342	0.211	0.05	0.88423	0.0066187
886.3	44.315	0.211	0.05	0.88778	0.0067677
946.28	47.314	0.211	0.05	0.87708	0.0063728
1006.8	50.34	0.211	0.05	0.88351	0.0062257
1067.9	53.396	0.211	0.05	0.88728	0.0063312
1129.6	56.482	0.211	0.05	0.88741	0.0065468
1192.1	59.606	0.211	0.05	0.89491	0.0069026
1255.3	62.767	0.211	0.05	0.89171	0.0067371
1319.4	65.968	0.211	0.05	0.89062	0.0063279
1384.3	69.215	0.211	0.05	0.89478	0.0062925
1450.1	72.505	0.211	0.05	0.895	0.0065427
1517.1	75.854	0.211	0.05	0.89886	0.0069709
1585.1	79.255	0.211	0.05	0.8963	0.0068583
1654.4	82.72	0.211	0.05	0.89338	0.0071799
1725	86.251	0.211	0.05	0.90106	0.0077224
1797	89.852	0.211	0.05	0.90771	0.0072431
1870.6	93.531	0.211	0.05	0.90208	0.006897
1946	97.298	0.211	0.05	0.89142	0.0071035
2023.1	101.15	0.211	0.05	0.90521	0.0076455
2102.3	105.12	0.211	0.05	0.90737	0.0074338
2183.6	109.18	0.211	0.05	0.8955	0.0067243
2267.3	113.36	0.211	0.05	0.91037	0.0071401
2353.4	117.67	0.211	0.05	0.90356	0.0074804
2442.4	122.12	0.211	0.05	0.89114	0.0068015
2534.3	126.72	0.211	0.05	0.92092	0.0067567
2629.6	131.48	0.211	0.05	0.91773	0.0072039
2728.2	136.41	0.211	0.05	0.91155	0.0071831
2830.8	141.54	0.211	0.05	0.908	0.0067165
2937.5	146.87	0.211	0.05	0.91998	0.0072657
3048.6	152.43	0.211	0.05	0.92017	0.0070378
3164.5	158.23	0.211	0.05	0.91534	0.0067692
3285.9	164.3	0.211	0.05	0.91436	0.0062492
3412.9	170.64	0.211	0.05	0.9253	0.0067504
3546.1	177.3	0.211	0.05	0.93611	0.0066703
3686	184.3	0.211	0.05	0.92831	0.0068685
3833.2	191.66	0.211	0.05	0.93816	0.0069909
3988.4	199.42	0.211	0.05	0.92165	0.0066401
4152.1	207.6	0.211	0.05	0.9198	0.0067991
4325	216.25	0.211	0.05	0.93197	0.0074226
4508.1	225.4	0.211	0.05	0.93098	0.0069596
4702.1	235.1	0.211	0.05	0.92741	0.0077539
4907.8	245.39	0.211	0.05	0.9347	0.0083421
5126.5	256.33	0.211	0.05	0.91181	0.0087137
5359.2	267.96	0.211	0.05	0.9251	0.0085552
5606.9	280.34	0.211	0.05	0.93659	0.0084169
5871	293.55	0.211	0.05	0.9364	0.0091156
6152.8	307.64	0.211	0.05	0.93525	0.0096243
6454	322.7	0.211	0.05	0.929	0.0090919
6776	338.8	0.211	0.05	0.92091	0.0091963
7120.6	356.03	0.211	0.05	0.92751	0.0096151
7489.9	374.49	0.211	0.05	0.93565	0.0099485
7885.6	394.28	0.211	0.05	0.96633	0.011339
8310.4	415.52	0.211	0.05	0.92009	0.011757
8766.4	438.32	0.211	0.05	0.95357	0.013043
9256.3	462.82	0.211	0.05	0.93467	0.014006
9783.1	489.15	0.211	0.05	0.93598	0.014214
10350	517.49	0.211	0.05	0.94059	0.014584
10960	547.99	0.211	0.05	0.91885	0.015793
11617	580.84	0.211	0.05	0.95211	0.018961
12325	616.23	0.211	0.05	0.97736	0.020606
13088	654.38	0.211	0.05	0.96292	0.023228
13910	695.52	0.211	0.05	0.9448	0.025103
14798	739.91	0.211	0.05	0.95765	0.029505
15756	787.81	0.211	0.05	0.88127	0.036381
16791	839.53	0.211	0.05	0.91947	0.044009
17908	895.39	0.211	0.05	0.84937	0.063362
