%File
FileName=D0007597.180
FileDate=02-Jul-2014
FileTime=15:44:43
Type=SANSDIso
Title=soft NP
User=Arb
ContentX=Q
ContentY=AvgFull
%Sample
SampleName=P.683/D2O
Environment=ITERATION 8
Position=408.515015
Phi=0.000284
Temperature=23.209999
Temp1=23.209999
Temp4=32.638889
Fl1Setting=1
IEEE1=500000
IEEE2=0
IEEE3=34
IEEE4=104317436
IEEE5=34
IEEE6=0
IEEE7=0
%Setup
Lambda=0.600
LambdaC=20932.000000
Tilting=0.687000
Attenuator=0
Collimation=8.000000
Polarization=0
SD=2.000
SY=0.399992
BeamstopX=-21.893999
BeamstopY=5.000000
%History
TotalSum=6.8641
TotalTime=712.2170
BeamcenterX=113.64
BeamcenterY=64.58
RadialSteps=1.00
SectorWidth=180.0
MaskFile=mask18m8Ang.sma
%Counts
 1.963e-02, 5.003e-02, 2.086e-02
 5.890e-02, 6.320e-03, 1.568e-02
 9.817e-02, 3.819e-03, 1.190e-02
 1.374e-01,-4.953e-03, 1.002e-02
 1.767e-01, 2.871e-02, 9.508e-03
 2.160e-01,-3.334e-03, 8.047e-03
 2.552e-01, 1.331e-01, 8.009e-03
 2.944e-01, 3.806e-01, 6.425e-03
 3.337e-01, 5.479e-01, 5.271e-03
 3.729e-01, 5.374e-01, 4.120e-03
 4.121e-01, 5.027e-01, 3.371e-03
 4.513e-01, 4.418e-01, 3.179e-03
 4.905e-01, 3.973e-01, 2.891e-03
 5.296e-01, 3.475e-01, 2.732e-03
 5.688e-01, 3.170e-01, 2.462e-03
 6.079e-01, 2.824e-01, 2.284e-03
 6.470e-01, 2.523e-01, 2.107e-03
 6.861e-01, 2.252e-01, 1.952e-03
 7.252e-01, 2.037e-01, 1.904e-03
 7.642e-01, 1.825e-01, 1.729e-03
 8.033e-01, 1.666e-01, 1.666e-03
 8.423e-01, 1.492e-01, 1.592e-03
 8.812e-01, 1.304e-01, 1.489e-03
 9.202e-01, 1.227e-01, 1.467e-03
 9.591e-01, 1.104e-01, 1.331e-03
 9.980e-01, 1.006e-01, 1.322e-03
 1.037e+00, 8.924e-02, 1.264e-03
 1.076e+00, 8.360e-02, 1.192e-03
 1.114e+00, 7.546e-02, 1.164e-03
 1.153e+00, 6.624e-02, 1.097e-03
 1.192e+00, 6.121e-02, 1.104e-03
 1.231e+00, 5.596e-02, 1.071e-03
 1.269e+00, 5.040e-02, 1.025e-03
 1.308e+00, 4.621e-02, 9.904e-04
 1.346e+00, 4.292e-02, 9.508e-04
 1.385e+00, 3.728e-02, 9.694e-04
 1.423e+00, 3.577e-02, 9.151e-04
 1.462e+00, 3.105e-02, 9.190e-04
 1.500e+00, 2.999e-02, 8.985e-04
 1.539e+00, 2.594e-02, 8.708e-04
 1.577e+00, 2.610e-02, 8.667e-04
 1.615e+00, 2.279e-02, 8.371e-04
 1.653e+00, 2.088e-02, 8.454e-04
 1.691e+00, 1.982e-02, 8.349e-04
 1.730e+00, 1.799e-02, 8.084e-04
 1.768e+00, 1.651e-02, 8.160e-04
 1.806e+00, 1.396e-02, 7.717e-04
 1.844e+00, 1.459e-02, 8.296e-04
 1.881e+00, 1.327e-02, 7.968e-04
 1.919e+00, 1.265e-02, 7.954e-04
 1.957e+00, 1.133e-02, 7.864e-04
 1.995e+00, 1.078e-02, 7.705e-04
 2.032e+00, 1.067e-02, 7.805e-04
 2.070e+00, 9.155e-03, 7.554e-04
 2.108e+00, 8.291e-03, 7.522e-04
 2.145e+00, 8.306e-03, 7.537e-04
 2.182e+00, 7.807e-03, 7.413e-04
 2.220e+00, 7.454e-03, 7.439e-04
 2.257e+00, 6.805e-03, 7.055e-04
 2.294e+00, 6.337e-03, 7.052e-04
 2.331e+00, 7.302e-03, 6.941e-04
 2.369e+00, 5.749e-03, 6.861e-04
 2.406e+00, 6.609e-03, 7.161e-04
 2.442e+00, 6.514e-03, 7.109e-04
 2.479e+00, 4.394e-03, 7.635e-04
 2.516e+00, 4.936e-03, 7.568e-04
 2.553e+00, 4.341e-03, 7.752e-04
 2.590e+00, 4.393e-03, 7.832e-04
 2.626e+00, 4.554e-03, 7.853e-04
 2.663e+00, 5.246e-03, 8.218e-04
 2.699e+00, 5.671e-03, 7.905e-04
 2.735e+00, 5.440e-03, 8.023e-04
 2.772e+00, 5.300e-03, 8.200e-04
 2.808e+00, 4.899e-03, 8.169e-04
 2.844e+00, 6.553e-03, 8.351e-04
 2.880e+00, 4.852e-03, 8.105e-04
 2.916e+00, 3.507e-03, 8.300e-04
 2.952e+00, 3.633e-03, 8.266e-04
 2.988e+00, 5.286e-03, 8.428e-04
 3.024e+00, 2.867e-03, 8.502e-04
 3.059e+00, 4.009e-03, 8.321e-04
 3.095e+00, 3.517e-03, 8.721e-04
 3.130e+00, 3.401e-03, 8.435e-04
 3.166e+00, 5.866e-03, 8.702e-04
 3.201e+00, 3.650e-03, 8.593e-04
 3.236e+00, 3.993e-03, 8.573e-04
 3.271e+00, 4.931e-03, 8.941e-04
 3.306e+00, 3.196e-03, 8.576e-04
 3.341e+00, 3.855e-03, 8.749e-04
 3.376e+00, 3.271e-03, 8.704e-04
 3.411e+00, 1.517e-03, 8.827e-04
 3.446e+00, 3.092e-03, 8.947e-04
 3.480e+00, 4.281e-03, 8.836e-04
 3.515e+00, 4.694e-03, 8.889e-04
 3.549e+00, 2.833e-03, 9.131e-04
 3.584e+00, 3.346e-03, 9.101e-04
 3.618e+00, 4.212e-03, 9.118e-04
 3.652e+00, 2.744e-03, 9.077e-04
 3.686e+00, 3.197e-03, 9.077e-04
 3.720e+00, 4.430e-03, 9.265e-04
 3.754e+00, 2.104e-03, 9.246e-04
 3.788e+00, 1.966e-03, 9.180e-04
 3.821e+00, 1.440e-03, 9.237e-04
 3.855e+00, 4.512e-03, 9.497e-04
 3.888e+00, 5.140e-03, 9.459e-04
 3.922e+00, 4.647e-03, 9.441e-04
 3.955e+00, 3.310e-03, 9.583e-04
 3.988e+00, 2.468e-03, 9.590e-04
 4.021e+00, 4.232e-03, 9.647e-04
 4.054e+00, 3.051e-03, 9.535e-04
 4.087e+00, 2.431e-03, 9.589e-04
 4.120e+00, 2.757e-03, 9.865e-04
 4.153e+00, 3.275e-03, 9.929e-04
 4.186e+00, 3.132e-03, 1.035e-03
 4.218e+00, 4.954e-03, 1.130e-03
 4.251e+00, 3.150e-03, 1.228e-03
 4.283e+00, 3.123e-03, 1.344e-03
 4.315e+00, 1.774e-03, 1.393e-03
 4.347e+00, 4.539e-03, 1.491e-03
 4.379e+00, 2.891e-03, 1.602e-03
 4.411e+00,-1.329e-03, 1.714e-03
 4.443e+00, 1.355e-03, 1.809e-03
 4.475e+00, 6.782e-04, 1.936e-03
 4.506e+00, 1.118e-03, 2.241e-03
 4.538e+00, 5.603e-04, 2.498e-03
 4.569e+00, 7.346e-03, 2.713e-03
 4.601e+00, 6.054e-03, 3.150e-03
 4.632e+00, 3.670e-03, 4.345e-03
 4.663e+00,-4.940e-03, 9.048e-03
