%File
FileName=D0007603.180
FileDate=02-Jul-2014
FileTime=15:44:43
Type=SANSDIso
Title=soft NP
User=Arb
ContentX=Q
ContentY=AvgFull
%Sample
SampleName=NP817/D2O
Environment=ITERATION 8
Position=451.488007
Phi=0.000284
Temperature=65.989998
Temp1=65.989998
Temp4=32.916668
Fl1Setting=1
IEEE1=500000
IEEE2=0
IEEE3=0
IEEE4=103804457
IEEE5=0
IEEE6=0
IEEE7=0
%Setup
Lambda=0.600
LambdaC=20938.000000
Tilting=0.687000
Attenuator=0
Collimation=8.000000
Polarization=0
SD=2.001
SY=0.399992
BeamstopX=-21.893999
BeamstopY=5.000000
%History
TotalSum=2.4528
TotalTime=697.2780
BeamcenterX=113.64
BeamcenterY=64.58
RadialSteps=1.00
SectorWidth=180.0
MaskFile=mask18m8Ang.sma
%Counts
 1.963e-02, 3.403e-03, 2.063e-02
 5.887e-02, 3.083e-02, 1.746e-02
 9.812e-02, 2.002e-03, 1.178e-02
 1.374e-01, 2.951e-02, 1.067e-02
 1.766e-01, 3.937e-03, 9.723e-03
 2.158e-01, 8.331e-04, 8.063e-03
 2.551e-01, 1.648e-01, 8.836e-03
 2.943e-01, 3.331e-01, 6.213e-03
 3.335e-01, 3.425e-01, 4.097e-03
 3.727e-01, 2.437e-01, 2.697e-03
 4.119e-01, 1.657e-01, 1.929e-03
 4.511e-01, 1.192e-01, 1.754e-03
 4.902e-01, 8.211e-02, 1.562e-03
 5.294e-01, 6.396e-02, 1.504e-03
 5.685e-01, 5.368e-02, 1.365e-03
 6.076e-01, 4.067e-02, 1.300e-03
 6.467e-01, 3.298e-02, 1.224e-03
 6.858e-01, 2.461e-02, 1.178e-03
 7.248e-01, 2.036e-02, 1.179e-03
 7.639e-01, 2.008e-02, 1.119e-03
 8.029e-01, 1.868e-02, 1.109e-03
 8.418e-01, 1.615e-02, 1.092e-03
 8.808e-01, 1.398e-02, 1.066e-03
 9.197e-01, 1.221e-02, 1.065e-03
 9.586e-01, 9.707e-03, 9.866e-04
 9.975e-01, 1.032e-02, 1.013e-03
 1.036e+00, 9.554e-03, 9.888e-04
 1.075e+00, 1.084e-02, 9.530e-04
 1.114e+00, 1.083e-02, 9.541e-04
 1.153e+00, 8.084e-03, 9.171e-04
 1.191e+00, 8.546e-03, 9.335e-04
 1.230e+00, 7.776e-03, 9.220e-04
 1.269e+00, 8.505e-03, 8.993e-04
 1.307e+00, 7.807e-03, 8.670e-04
 1.346e+00, 6.511e-03, 8.505e-04
 1.384e+00, 7.341e-03, 8.881e-04
 1.423e+00, 6.942e-03, 8.337e-04
 1.461e+00, 6.521e-03, 8.454e-04
 1.499e+00, 6.752e-03, 8.334e-04
 1.538e+00, 6.910e-03, 8.163e-04
 1.576e+00, 7.441e-03, 8.190e-04
 1.614e+00, 5.831e-03, 7.927e-04
 1.653e+00, 6.612e-03, 8.086e-04
 1.691e+00, 6.457e-03, 8.067e-04
 1.729e+00, 5.749e-03, 7.783e-04
 1.767e+00, 5.797e-03, 7.920e-04
 1.805e+00, 6.837e-03, 7.481e-04
 1.843e+00, 4.117e-03, 8.138e-04
 1.881e+00, 4.649e-03, 7.810e-04
 1.918e+00, 5.029e-03, 7.859e-04
 1.956e+00, 4.577e-03, 7.774e-04
 1.994e+00, 5.586e-03, 7.628e-04
 2.031e+00, 6.170e-03, 7.732e-04
 2.069e+00, 4.359e-03, 7.513e-04
 2.107e+00, 5.759e-03, 7.490e-04
 2.144e+00, 6.129e-03, 7.529e-04
 2.181e+00, 5.551e-03, 7.435e-04
 2.219e+00, 5.161e-03, 7.529e-04
 2.256e+00, 4.580e-03, 7.109e-04
 2.293e+00, 4.279e-03, 7.061e-04
 2.330e+00, 5.510e-03, 6.977e-04
 2.367e+00, 5.661e-03, 6.943e-04
 2.404e+00, 5.423e-03, 7.229e-04
 2.441e+00, 5.903e-03, 7.186e-04
 2.478e+00, 4.564e-03, 7.738e-04
 2.515e+00, 5.088e-03, 7.697e-04
 2.552e+00, 5.343e-03, 7.872e-04
 2.588e+00, 3.617e-03, 7.966e-04
 2.625e+00, 5.669e-03, 7.949e-04
 2.661e+00, 5.058e-03, 8.332e-04
 2.698e+00, 6.307e-03, 8.037e-04
 2.734e+00, 4.042e-03, 8.181e-04
 2.770e+00, 5.423e-03, 8.347e-04
 2.807e+00, 5.306e-03, 8.271e-04
 2.843e+00, 5.139e-03, 8.462e-04
 2.879e+00, 5.659e-03, 8.268e-04
 2.915e+00, 5.672e-03, 8.439e-04
 2.951e+00, 5.935e-03, 8.452e-04
 2.986e+00, 5.950e-03, 8.635e-04
 3.022e+00, 6.032e-03, 8.640e-04
 3.058e+00, 6.096e-03, 8.405e-04
 3.093e+00, 4.094e-03, 8.843e-04
 3.129e+00, 5.889e-03, 8.529e-04
 3.164e+00, 5.810e-03, 8.843e-04
 3.199e+00, 6.198e-03, 8.726e-04
 3.235e+00, 5.047e-03, 8.755e-04
 3.270e+00, 4.186e-03, 9.077e-04
 3.305e+00, 4.335e-03, 8.774e-04
 3.340e+00, 4.489e-03, 8.953e-04
 3.375e+00, 3.342e-03, 8.901e-04
 3.409e+00, 6.121e-03, 9.008e-04
 3.444e+00, 5.269e-03, 9.181e-04
 3.479e+00, 6.366e-03, 9.010e-04
 3.513e+00, 4.731e-03, 9.122e-04
 3.548e+00, 6.394e-03, 9.392e-04
 3.582e+00, 5.570e-03, 9.290e-04
 3.616e+00, 3.989e-03, 9.325e-04
 3.650e+00, 3.528e-03, 9.281e-04
 3.684e+00, 4.547e-03, 9.297e-04
 3.718e+00, 6.331e-03, 9.467e-04
 3.752e+00, 4.436e-03, 9.479e-04
 3.786e+00, 5.780e-03, 9.358e-04
 3.820e+00, 5.579e-03, 9.484e-04
 3.853e+00, 5.436e-03, 9.699e-04
 3.887e+00, 7.529e-03, 9.744e-04
 3.920e+00, 5.407e-03, 9.650e-04
 3.953e+00, 5.539e-03, 9.738e-04
 3.987e+00, 6.358e-03, 9.813e-04
 4.020e+00, 7.396e-03, 9.853e-04
 4.053e+00, 6.098e-03, 9.755e-04
 4.086e+00, 6.008e-03, 9.835e-04
 4.118e+00, 4.964e-03, 1.014e-03
 4.151e+00, 5.031e-03, 1.012e-03
 4.184e+00, 4.582e-03, 1.060e-03
 4.216e+00, 4.991e-03, 1.159e-03
 4.249e+00, 6.193e-03, 1.259e-03
 4.281e+00, 6.525e-03, 1.370e-03
 4.313e+00, 4.178e-03, 1.440e-03
 4.345e+00, 4.123e-03, 1.516e-03
 4.377e+00, 5.766e-03, 1.646e-03
 4.409e+00, 5.774e-03, 1.751e-03
 4.441e+00, 3.987e-03, 1.870e-03
 4.473e+00, 3.479e-03, 2.000e-03
 4.504e+00, 3.914e-03, 2.260e-03
 4.536e+00, 4.677e-03, 2.543e-03
 4.567e+00, 1.404e-03, 2.800e-03
 4.599e+00, 9.417e-03, 3.213e-03
 4.630e+00, 3.668e-03, 4.348e-03
 4.661e+00, 1.242e-02, 9.805e-03
