%File
FileName=D0007598.180
FileDate=02-Jul-2014
FileTime=15:44:43
Type=SANSDIso
Title=soft NP
User=Arb
ContentX=Q
ContentY=AvgFull
%Sample
SampleName=NP817/D2O
Environment=ITERATION 8
Position=451.488007
Phi=0.000284
Temperature=23.280001
Temp1=23.280001
Temp4=32.847221
Fl1Setting=1
IEEE1=500000
IEEE2=0
IEEE3=4
IEEE4=103378604
IEEE5=4
IEEE6=0
IEEE7=0
%Setup
Lambda=0.600
LambdaC=20928.000000
Tilting=0.687000
Attenuator=0
Collimation=8.000000
Polarization=0
SD=2.000
SY=0.399992
BeamstopX=-21.893999
BeamstopY=5.000000
%History
TotalSum=5.1595
TotalTime=724.7300
BeamcenterX=113.64
BeamcenterY=64.58
RadialSteps=1.00
SectorWidth=180.0
MaskFile=mask18m8Ang.sma
%Counts
 1.963e-02, 1.220e-02, 1.817e-02
 5.890e-02, 2.114e-02, 1.624e-02
 9.817e-02, 1.860e-02, 1.225e-02
 1.374e-01,-7.557e-04, 1.017e-02
 1.767e-01, 1.310e-02, 9.123e-03
 2.160e-01, 1.040e-04, 8.109e-03
 2.552e-01, 1.039e-01, 7.597e-03
 2.944e-01, 2.994e-01, 5.870e-03
 3.337e-01, 4.292e-01, 4.649e-03
 3.729e-01, 4.241e-01, 3.563e-03
 4.121e-01, 3.936e-01, 2.903e-03
 4.513e-01, 3.490e-01, 2.768e-03
 4.905e-01, 3.088e-01, 2.510e-03
 5.296e-01, 2.736e-01, 2.407e-03
 5.688e-01, 2.475e-01, 2.175e-03
 6.079e-01, 2.223e-01, 2.036e-03
 6.470e-01, 1.938e-01, 1.875e-03
 6.861e-01, 1.730e-01, 1.749e-03
 7.252e-01, 1.566e-01, 1.716e-03
 7.642e-01, 1.368e-01, 1.555e-03
 8.033e-01, 1.213e-01, 1.493e-03
 8.423e-01, 1.105e-01, 1.445e-03
 8.812e-01, 9.645e-02, 1.364e-03
 9.202e-01, 8.567e-02, 1.330e-03
 9.591e-01, 7.685e-02, 1.214e-03
 9.980e-01, 6.808e-02, 1.207e-03
 1.037e+00, 5.973e-02, 1.161e-03
 1.076e+00, 5.342e-02, 1.092e-03
 1.114e+00, 4.939e-02, 1.077e-03
 1.153e+00, 4.239e-02, 1.020e-03
 1.192e+00, 3.777e-02, 1.027e-03
 1.231e+00, 3.566e-02, 1.005e-03
 1.269e+00, 3.163e-02, 9.650e-04
 1.308e+00, 2.636e-02, 9.281e-04
 1.346e+00, 2.587e-02, 8.986e-04
 1.385e+00, 2.310e-02, 9.240e-04
 1.423e+00, 2.012e-02, 8.677e-04
 1.462e+00, 1.709e-02, 8.769e-04
 1.500e+00, 1.745e-02, 8.616e-04
 1.539e+00, 1.438e-02, 8.373e-04
 1.577e+00, 1.321e-02, 8.287e-04
 1.615e+00, 1.196e-02, 8.067e-04
 1.653e+00, 1.060e-02, 8.154e-04
 1.691e+00, 1.088e-02, 8.090e-04
 1.730e+00, 9.355e-03, 7.842e-04
 1.768e+00, 8.581e-03, 7.939e-04
 1.806e+00, 7.090e-03, 7.531e-04
 1.844e+00, 8.782e-03, 8.132e-04
 1.881e+00, 6.483e-03, 7.778e-04
 1.919e+00, 6.890e-03, 7.795e-04
 1.957e+00, 6.226e-03, 7.724e-04
 1.995e+00, 5.223e-03, 7.550e-04
 2.032e+00, 6.078e-03, 7.681e-04
 2.070e+00, 5.254e-03, 7.452e-04
 2.108e+00, 3.490e-03, 7.390e-04
 2.145e+00, 4.820e-03, 7.442e-04
 2.182e+00, 5.449e-03, 7.353e-04
 2.220e+00, 5.851e-03, 7.399e-04
 2.257e+00, 3.534e-03, 6.974e-04
 2.294e+00, 2.714e-03, 6.963e-04
 2.331e+00, 5.217e-03, 6.893e-04
 2.369e+00, 4.321e-03, 6.826e-04
 2.406e+00, 4.828e-03, 7.116e-04
 2.442e+00, 4.220e-03, 7.048e-04
 2.479e+00, 3.201e-03, 7.604e-04
 2.516e+00, 4.538e-03, 7.557e-04
 2.553e+00, 2.743e-03, 7.709e-04
 2.590e+00, 2.857e-03, 7.793e-04
 2.626e+00, 3.175e-03, 7.816e-04
 2.663e+00, 3.847e-03, 8.183e-04
 2.699e+00, 4.175e-03, 7.864e-04
 2.735e+00, 5.139e-03, 8.019e-04
 2.772e+00, 4.424e-03, 8.178e-04
 2.808e+00, 4.200e-03, 8.152e-04
 2.844e+00, 4.571e-03, 8.293e-04
 2.880e+00, 2.392e-03, 8.033e-04
 2.916e+00, 2.488e-03, 8.271e-04
 2.952e+00, 3.271e-03, 8.260e-04
 2.988e+00, 3.963e-03, 8.389e-04
 3.024e+00, 2.979e-03, 8.509e-04
 3.059e+00, 3.073e-03, 8.295e-04
 3.095e+00, 1.765e-03, 8.669e-04
 3.130e+00, 3.320e-03, 8.435e-04
 3.166e+00, 5.167e-03, 8.683e-04
 3.201e+00, 2.372e-03, 8.558e-04
 3.236e+00, 3.149e-03, 8.548e-04
 3.271e+00, 2.845e-03, 8.873e-04
 3.306e+00, 4.962e-03, 8.640e-04
 3.341e+00, 4.256e-03, 8.766e-04
 3.376e+00, 2.731e-03, 8.693e-04
 3.411e+00, 1.751e-03, 8.837e-04
 3.446e+00, 3.579e-03, 8.967e-04
 3.480e+00, 4.276e-03, 8.838e-04
 3.515e+00, 3.194e-03, 8.842e-04
 3.549e+00, 2.467e-03, 9.120e-04
 3.584e+00, 3.527e-03, 9.117e-04
 3.618e+00, 4.490e-03, 9.134e-04
 3.652e+00, 1.661e-03, 9.043e-04
 3.686e+00, 3.740e-03, 9.099e-04
 3.720e+00, 3.762e-03, 9.244e-04
 3.754e+00, 3.770e-03, 9.313e-04
 3.788e+00, 2.252e-03, 9.188e-04
 3.821e+00, 1.883e-03, 9.260e-04
 3.855e+00, 3.353e-03, 9.458e-04
 3.888e+00, 4.636e-03, 9.448e-04
 3.922e+00, 3.368e-03, 9.396e-04
 3.955e+00, 2.500e-03, 9.555e-04
 3.988e+00, 1.233e-03, 9.555e-04
 4.021e+00, 4.642e-03, 9.662e-04
 4.054e+00, 1.475e-03, 9.483e-04
 4.087e+00, 3.758e-03, 9.642e-04
 4.120e+00, 3.060e-03, 9.881e-04
 4.153e+00, 3.301e-03, 9.931e-04
 4.186e+00, 2.150e-03, 1.032e-03
 4.218e+00, 3.950e-03, 1.126e-03
 4.251e+00, 2.851e-03, 1.226e-03
 4.283e+00, 3.914e-04, 1.332e-03
 4.315e+00, 2.125e-03, 1.395e-03
 4.347e+00, 2.444e-03, 1.480e-03
 4.379e+00, 2.680e-03, 1.601e-03
 4.411e+00, 1.906e-03, 1.736e-03
 4.443e+00, 2.069e-03, 1.816e-03
 4.475e+00, 9.416e-04, 1.938e-03
 4.506e+00,-5.884e-04, 2.228e-03
 4.538e+00, 6.024e-04, 2.503e-03
 4.569e+00, 4.764e-03, 2.679e-03
 4.601e+00, 4.622e-03, 3.132e-03
 4.632e+00, 1.396e-03, 4.312e-03
 4.663e+00, 1.357e-02, 9.659e-03
